  # e[MeV/fm3],   pr[MeV/fm3],  n_b[1/fm3],  mu_b[MeV]
 0.145192  0.000264929  0.000154906  939 
 0.586689  0.0008023  0.000624531  940.693 
 2.05564  0.00256359  0.00218403  942.387 
 5.3643  0.00868213  0.00569123  944.08 
 11.7296  0.0248565  0.0124284  945.773 
 22.0686  0.0579453  0.0233533  947.467 
 36.6191  0.113688  0.0387003  949.16 
 53.6048  0.194684  0.0565802  950.854 
 70.8706  0.300799  0.0747169  952.547 
 87.1961  0.430339  0.0918285  954.24 
 98.1918  0.585801  0.103331  955.934 
 108.378  0.761728  0.113969  957.627 
 117.941  0.956303  0.123939  959.32 
 126.813  1.16813  0.133173  961.014 
 135.054  1.39593  0.141736  962.707 
 142.751  1.63857  0.14972  964.4 
 149.983  1.8951  0.157209  966.094 
 156.816  2.16469  0.164272  967.787 
 163.304  2.44662  0.170968  969.48 
 169.491  2.74027  0.177343  971.174 
 175.414  3.04508  0.183436  972.867 
 181.103  3.36057  0.189279  974.561 
 186.584  3.6863  0.194898  976.254 
 191.877  4.02188  0.200316  977.947 
 197  4.36696  0.205552  979.641 
 201.97  4.7212  0.210623  981.334 
 206.799  5.08432  0.215542  983.027 
 211.5  5.45604  0.220323  984.721 
 216.082  5.83611  0.224975  986.414 
 220.555  6.22431  0.229509  988.107 
 224.926  6.62041  0.233932  989.801 
 229.203  7.02423  0.238254  991.494 
 233.391  7.43556  0.242479  993.187 
 237.498  7.85425  0.246614  994.881 
 241.527  8.28012  0.250665  996.574 
 245.483  8.71301  0.254637  998.268 
 249.371  9.1528  0.258534  999.961 
 253.194  9.59933  0.26236  1001.65 
 256.957  10.0525  0.266119  1003.35 
 260.661  10.5121  0.269813  1005.04 
 264.311  10.9781  0.273448  1006.73 
 267.909  11.4504  0.277025  1008.43 
 271.457  11.9289  0.280546  1010.12 
 274.957  12.4133  0.284015  1011.81 
 278.413  12.9038  0.287434  1013.51 
 281.825  13.4001  0.290805  1015.2 
 285.197  13.9022  0.29413  1016.89 
 288.528  14.41  0.29741  1018.59 
 291.822  14.9235  0.300648  1020.28 
 295.079  15.4424  0.303845  1021.97 
 298.302  15.9668  0.307002  1023.67 
 301.491  16.4966  0.310122  1025.36 
 304.647  17.0317  0.313205  1027.05 
 307.773  17.5721  0.316253  1028.75 
 310.868  18.1176  0.319267  1030.44 
 313.934  18.6683  0.322247  1032.13 
 316.973  19.224  0.325196  1033.83 
 319.984  19.7848  0.328114  1035.52 
 322.969  20.3504  0.331002  1037.21 
 325.93  20.921  0.333861  1038.91 
 328.865  21.4964  0.336691  1040.6 
 331.777  22.0766  0.339495  1042.29 
 334.666  22.6615  0.342272  1043.99 
 337.533  23.2512  0.345023  1045.68 
 340.378  23.8454  0.347749  1047.37 
 343.202  24.4443  0.35045  1049.07 
 346.006  25.0477  0.353128  1050.76 
 348.79  25.6556  0.355783  1052.45 
 351.554  26.268  0.358415  1054.15 
 354.3  26.8848  0.361025  1055.84 
 357.028  27.506  0.363614  1057.54 
 359.738  28.1315  0.366181  1059.23 
 362.431  28.7613  0.368729  1060.92 
 365.107  29.3954  0.371256  1062.62 
 367.767  30.0338  0.373764  1064.31 
 370.41  30.6763  0.376253  1066 
 373.039  31.323  0.378724  1067.7 
 375.651  31.9738  0.381176  1069.39 
 378.25  32.6288  0.383611  1071.08 
 380.833  33.2878  0.386028  1072.78 
 383.403  33.9508  0.388428  1074.47 
 385.958  34.6178  0.390811  1076.16 
 388.501  35.2889  0.393178  1077.86 
 391.03  35.9638  0.39553  1079.55 
 393.546  36.6427  0.397865  1081.24 
 396.049  37.3255  0.400185  1082.94 
 398.54  38.0121  0.40249  1084.63 
 401.02  38.7025  0.404781  1086.32 
 403.487  39.3968  0.407056  1088.02 
 405.943  40.0948  0.409318  1089.71 
 408.387  40.7967  0.411566  1091.4 
 410.82  41.5022  0.4138  1093.1 
 413.243  42.2114  0.41602  1094.79 
 415.655  42.9244  0.418227  1096.48 
 418.056  43.6409  0.420422  1098.18 
 420.447  44.3612  0.422603  1099.87 
 422.828  45.085  0.424772  1101.56 
 425.199  45.8124  0.426929  1103.26 
 427.561  46.5434  0.429074  1104.95 
 429.913  47.278  0.431206  1106.64 
 432.256  48.0161  0.433327  1108.34 
 434.59  48.7577  0.435437  1110.03 
 436.915  49.5028  0.437535  1111.72 
 439.231  50.2513  0.439622  1113.42 
 441.538  51.0033  0.441698  1115.11 
 443.837  51.7587  0.443763  1116.8 
 446.128  52.5176  0.445818  1118.5 
 448.41  53.2798  0.447862  1120.19 
 450.685  54.0454  0.449895  1121.88 
 452.951  54.8144  0.451919  1123.58 
 455.21  55.5867  0.453933  1125.27 
 457.461  56.3623  0.455936  1126.96 
 459.704  57.1412  0.45793  1128.66 
 461.941  57.9234  0.459915  1130.35 
 464.17  58.7089  0.461889  1132.04 
 466.392  59.4976  0.463855  1133.74 
 468.606  60.2896  0.465811  1135.43 
 470.814  61.0848  0.467759  1137.12 
 473.015  61.8832  0.469697  1138.82 
 475.21  62.6848  0.471627  1140.51 
 477.398  63.4896  0.473547  1142.2 
 479.579  64.2975  0.47546  1143.9 
 481.754  65.1086  0.477363  1145.59 
 483.923  65.9228  0.479259  1147.28 
 486.085  66.7401  0.481146  1148.98 
 488.242  67.5605  0.483025  1150.67 
 490.392  68.3841  0.484896  1152.36 
 492.537  69.2107  0.486759  1154.06 
 494.675  70.0403  0.488614  1155.75 
 496.808  70.873  0.490462  1157.44 
 498.936  71.7088  0.492301  1159.14 
 501.057  72.5476  0.494134  1160.83 
 503.174  73.3893  0.495958  1162.52 
 505.284  74.2341  0.497776  1164.22 
 507.39  75.0819  0.499586  1165.91 
 509.49  75.9326  0.501389  1167.6 
 511.585  76.7863  0.503184  1169.3 
 513.675  77.643  0.504973  1170.99 
 515.76  78.5026  0.506755  1172.68 
 517.84  79.3651  0.50853  1174.38 
 519.915  80.2305  0.510298  1176.07 
 521.986  81.0988  0.512059  1177.76 
 524.051  81.9701  0.513814  1179.46 
 526.112  82.8442  0.515562  1181.15 
 528.168  83.7211  0.517303  1182.84 
 530.219  84.601  0.519039  1184.54 
 532.267  85.4836  0.520767  1186.23 
 534.309  86.3691  0.52249  1187.92 
 536.347  87.2575  0.524206  1189.62 
 538.381  88.1486  0.525917  1191.31 
 540.411  89.0426  0.527621  1193 
 542.436  89.9394  0.529319  1194.7 
 544.457  90.8389  0.531011  1196.39 
 546.474  91.7412  0.532697  1198.08 
 548.487  92.6463  0.534377  1199.78 
 550.496  93.5542  0.536052  1201.47 
 552.501  94.4648  0.537721  1203.16 
 554.502  95.3781  0.539384  1204.86 
 556.499  96.2942  0.541041  1206.55 
 558.493  97.2129  0.542693  1208.24 
 560.482  98.1344  0.54434  1209.94 
 562.468  99.0586  0.545981  1211.63 
 564.45  99.9855  0.547616  1213.32 
 566.429  100.915  0.549247  1215.02 
 568.404  101.847  0.550872  1216.71 
 570.375  102.782  0.552491  1218.4 
 572.343  103.72  0.554106  1220.1 
 574.308  104.66  0.555715  1221.79 
 576.269  105.603  0.55732  1223.48 
 578.227  106.548  0.558919  1225.18 
 580.181  107.496  0.560513  1226.87 
 582.132  108.447  0.562103  1228.56 
 584.08  109.401  0.563687  1230.26 
 586.024  110.356  0.565267  1231.95 
 587.966  111.315  0.566841  1233.64 
 589.904  112.276  0.568411  1235.34 
 591.839  113.24  0.569977  1237.03 
 593.771  114.206  0.571537  1238.72 
 595.7  115.175  0.573093  1240.42 
 597.626  116.146  0.574644  1242.11 
 599.549  117.12  0.576191  1243.8 
 601.469  118.097  0.577733  1245.5 
 603.386  119.076  0.579271  1247.19 
 605.3  120.057  0.580804  1248.88 
 607.211  121.041  0.582333  1250.58 
 609.12  122.028  0.583857  1252.27 
 611.026  123.017  0.585378  1253.96 
 612.929  124.008  0.586893  1255.66 
 614.829  125.002  0.588405  1257.35 
 616.727  125.999  0.589912  1259.04 
 618.622  126.998  0.591415  1260.74 
 620.514  127.999  0.592914  1262.43 
 622.404  129.003  0.594409  1264.12 
 624.291  130.01  0.5959  1265.82 
 626.176  131.018  0.597387  1267.51 
 628.058  132.03  0.598869  1269.2 
 629.938  133.043  0.600348  1270.9 
 631.815  134.06  0.601823  1272.59 
 633.69  135.078  0.603293  1274.28 
 635.562  136.099  0.60476  1275.98 
 637.432  137.123  0.606223  1277.67 
 639.299  138.148  0.607682  1279.36 
 641.165  139.176  0.609138  1281.06 
 643.027  140.207  0.610589  1282.75 
 644.888  141.24  0.612037  1284.44 
 646.746  142.275  0.613481  1286.14 
 648.603  143.313  0.614922  1287.83 
 650.456  144.353  0.616358  1289.53 
 652.308  145.396  0.617792  1291.22 
 654.158  146.441  0.619221  1292.91 
 656.005  147.488  0.620647  1294.61 
 657.85  148.537  0.622069  1296.3 
 659.693  149.589  0.623488  1297.99 
 661.535  150.643  0.624904  1299.69 
 663.374  151.7  0.626315  1301.38 
 665.211  152.759  0.627724  1303.07 
 667.045  153.82  0.629129  1304.77 
 668.878  154.883  0.63053  1306.46 
 670.709  155.949  0.631928  1308.15 
 672.538  157.017  0.633323  1309.85 
 674.365  158.088  0.634715  1311.54 
 676.191  159.16  0.636103  1313.23 
 678.014  160.235  0.637488  1314.93 
 679.835  161.313  0.63887  1316.62 
 681.655  162.392  0.640248  1318.31 
 683.472  163.474  0.641623  1320.01 
 685.288  164.558  0.642995  1321.7 
 687.102  165.644  0.644364  1323.39 
 688.914  166.733  0.64573  1325.09 
 690.725  167.824  0.647092  1326.78 
 692.534  168.917  0.648452  1328.47 
 694.34  170.012  0.649808  1330.17 
 696.146  171.11  0.651162  1331.86 
 697.949  172.209  0.652512  1333.55 
 699.751  173.311  0.653859  1335.25 
 701.551  174.416  0.655203  1336.94 
 703.35  175.522  0.656545  1338.63 
 705.147  176.631  0.657883  1340.33 
 706.942  177.742  0.659218  1342.02 
 708.736  178.855  0.660551  1343.71 
 710.528  179.97  0.66188  1345.41 
 712.318  181.088  0.663207  1347.1 
 714.107  182.207  0.664531  1348.79 
 715.894  183.329  0.665852  1350.49 
 717.68  184.453  0.66717  1352.18 
 719.465  185.58  0.668485  1353.87 
 721.247  186.708  0.669798  1355.57 
 723.029  187.838  0.671108  1357.26 
 724.809  188.971  0.672415  1358.95 
 726.587  190.106  0.673719  1360.65 
 728.364  191.243  0.675021  1362.34 
 730.14  192.382  0.676319  1364.03 
 731.914  193.524  0.677616  1365.73 
 733.686  194.667  0.678909  1367.42 
 735.458  195.813  0.6802  1369.11 
 737.228  196.961  0.681488  1370.81 
 738.996  198.111  0.682774  1372.5 
 740.763  199.263  0.684057  1374.19 
 742.529  200.417  0.685337  1375.89 
 744.294  201.573  0.686615  1377.58 
 746.057  202.731  0.68789  1379.27 
 747.819  203.892  0.689163  1380.97 
 749.58  205.055  0.690433  1382.66 
 751.339  206.219  0.691701  1384.35 
 753.097  207.386  0.692966  1386.05 
 754.854  208.555  0.694229  1387.74 
 756.61  209.726  0.695489  1389.43 
 758.364  210.899  0.696747  1391.13 
 760.117  212.074  0.698003  1392.82 
 761.869  213.252  0.699255  1394.51 
 763.62  214.431  0.700506  1396.21 
 765.37  215.612  0.701754  1397.9 
 767.118  216.796  0.703  1399.59 
 768.866  217.981  0.704243  1401.29 
 770.612  219.169  0.705485  1402.98 
 772.357  220.359  0.706723  1404.67 
 774.101  221.55  0.70796  1406.37 
 775.843  222.744  0.709194  1408.06 
 777.585  223.94  0.710426  1409.75 
 779.325  225.138  0.711655  1411.45 
 781.065  226.338  0.712882  1413.14 
 782.803  227.54  0.714107  1414.83 
 784.541  228.744  0.71533  1416.53 
 786.277  229.95  0.716551  1418.22 
 788.012  231.158  0.717769  1419.91 
 789.746  232.368  0.718985  1421.61 
 791.479  233.58  0.720199  1423.3 
 793.212  234.794  0.721411  1424.99 
 794.943  236.01  0.72262  1426.69 
 796.673  237.228  0.723828  1428.38 
 798.402  238.449  0.725033  1430.07 
 800.13  239.671  0.726236  1431.77 
 801.857  240.895  0.727437  1433.46 
 803.584  242.121  0.728636  1435.15 
 805.309  243.349  0.729833  1436.85 
 807.033  244.579  0.731027  1438.54 
 808.757  245.811  0.73222  1440.23 
 810.479  247.045  0.73341  1441.93 
 812.201  248.282  0.734599  1443.62 
 813.921  249.52  0.735785  1445.31 
 815.641  250.76  0.73697  1447.01 
 817.36  252.002  0.738152  1448.7 
 819.078  253.246  0.739333  1450.39 
 820.795  254.492  0.740511  1452.09 
 822.511  255.74  0.741687  1453.78 
 824.227  256.989  0.742862  1455.47 
 825.941  258.241  0.744034  1457.17 
 827.655  259.495  0.745205  1458.86 
 829.368  260.751  0.746373  1460.55 
 831.08  262.009  0.74754  1462.25 
 832.791  263.268  0.748705  1463.94 
 834.501  264.53  0.749867  1465.63 
 836.211  265.793  0.751028  1467.33 
 837.92  267.059  0.752187  1469.02 
 839.628  268.326  0.753344  1470.71 
 841.335  269.595  0.754499  1472.41 
 843.041  270.867  0.755653  1474.1 
 844.747  272.14  0.756804  1475.79 
 846.452  273.415  0.757954  1477.49 
 848.156  274.692  0.759101  1479.18 
 849.86  275.971  0.760247  1480.87 
 851.563  277.252  0.761391  1482.57 
 853.265  278.534  0.762534  1484.26 
 854.966  279.819  0.763674  1485.95 
 856.666  281.106  0.764813  1487.65 
 858.366  282.394  0.76595  1489.34 
 860.065  283.685  0.767085  1491.03 
 861.764  284.977  0.768218  1492.73 
 863.462  286.271  0.76935  1494.42 
 865.159  287.567  0.77048  1496.11 
 866.855  288.865  0.771608  1497.81 
 868.551  290.165  0.772734  1499.5 
 870.246  291.467  0.773859  1501.19 
 871.94  292.77  0.774982  1502.89 
 873.634  294.076  0.776103  1504.58 
 875.327  295.383  0.777222  1506.27 
 877.02  296.692  0.77834  1507.97 
 878.712  298.003  0.779456  1509.66 
 880.403  299.316  0.780571  1511.35 
 882.094  300.631  0.781684  1513.05 
 883.784  301.948  0.782795  1514.74 
 885.473  303.266  0.783904  1516.43 
 887.162  304.587  0.785012  1518.13 
 888.85  305.909  0.786118  1519.82 
 890.538  307.233  0.787223  1521.52 
 892.225  308.559  0.788326  1523.21 
 893.911  309.887  0.789427  1524.9 
 895.597  311.217  0.790527  1526.6 
 897.283  312.548  0.791625  1528.29 
 898.968  313.882  0.792721  1529.98 
 900.652  315.217  0.793816  1531.68 
 902.336  316.554  0.79491  1533.37 
 904.019  317.893  0.796002  1535.06 
 905.701  319.234  0.797092  1536.76 
 907.383  320.576  0.798181  1538.45 
 909.065  321.921  0.799268  1540.14 
 910.746  323.267  0.800353  1541.84 
 912.427  324.615  0.801437  1543.53 
 914.107  325.965  0.80252  1545.22 
 915.786  327.316  0.803601  1546.92 
 917.465  328.67  0.80468  1548.61 
 919.144  330.025  0.805758  1550.3 
 920.822  331.382  0.806835  1552 
 922.5  332.741  0.80791  1553.69 
 924.177  334.102  0.808983  1555.38 
 925.853  335.464  0.810056  1557.08 
 927.529  336.829  0.811126  1558.77 
 929.205  338.195  0.812195  1560.46 
 930.88  339.563  0.813263  1562.16 
 932.555  340.932  0.814329  1563.85 
 934.23  342.304  0.815394  1565.54 
 935.904  343.677  0.816457  1567.24 
 937.577  345.052  0.817519  1568.93 
 939.25  346.429  0.81858  1570.62 
 940.923  347.808  0.819639  1572.32 
 942.595  349.188  0.820696  1574.01 
 944.267  350.571  0.821752  1575.7 
 945.938  351.955  0.822807  1577.4 
 947.609  353.34  0.823861  1579.09 
 949.28  354.728  0.824913  1580.78 
 950.95  356.117  0.825963  1582.48 
 952.619  357.508  0.827013  1584.17 
 954.289  358.901  0.82806  1585.86 
 955.958  360.296  0.829107  1587.56 
 957.626  361.692  0.830152  1589.25 
 959.295  363.09  0.831196  1590.94 
 960.963  364.49  0.832238  1592.64 
 962.63  365.892  0.83328  1594.33 
 964.297  367.296  0.834319  1596.02 
 965.964  368.701  0.835358  1597.72 
 967.63  370.108  0.836395  1599.41 
 969.296  371.516  0.837431  1601.1 
 970.962  372.927  0.838465  1602.8 
 972.628  374.339  0.839498  1604.49 
 974.293  375.753  0.84053  1606.18 
 975.957  377.169  0.841561  1607.88 
 977.622  378.586  0.84259  1609.57 
 979.286  380.005  0.843618  1611.26 
 980.949  381.426  0.844645  1612.96 
 982.613  382.849  0.84567  1614.65 
 984.276  384.273  0.846695  1616.34 
 985.939  385.699  0.847718  1618.04 
 987.601  387.127  0.848739  1619.73 
 989.263  388.556  0.84976  1621.42 
 990.925  389.988  0.850779  1623.12 
 992.587  391.421  0.851797  1624.81 
 994.248  392.855  0.852813  1626.5 
 995.909  394.292  0.853829  1628.2 
 997.57  395.73  0.854843  1629.89 
 999.23  397.17  0.855856  1631.58 
 1000.89  398.611  0.856868  1633.28 
 1002.55  400.055  0.857878  1634.97 
 1004.21  401.5  0.858887  1636.66 
 1005.87  402.946  0.859896  1638.36 
 1007.53  404.395  0.860902  1640.05 
 1009.19  405.845  0.861908  1641.74 
 1010.85  407.297  0.862913  1643.44 
 1012.5  408.75  0.863916  1645.13 
 1014.16  410.205  0.864918  1646.82 
 1015.82  411.662  0.865919  1648.52 
 1017.48  413.121  0.866919  1650.21 
 1019.14  414.581  0.867918  1651.9 
 1020.79  416.043  0.868915  1653.6 
 1022.45  417.507  0.869911  1655.29 
 1024.11  418.972  0.870907  1656.98 
 1025.76  420.439  0.871901  1658.68 
 1027.42  421.908  0.872894  1660.37 
 1029.07  423.378  0.873885  1662.06 
 1030.73  424.851  0.874876  1663.76 
 1032.39  426.324  0.875865  1665.45 
 1034.04  427.8  0.876854  1667.14 
 1035.7  429.277  0.877841  1668.84 
 1037.35  430.756  0.878827  1670.53 
 1039.01  432.236  0.879812  1672.22 
 1040.66  433.718  0.880796  1673.92 
 1042.32  435.202  0.881779  1675.61 
 1043.97  436.688  0.88276  1677.3 
 1045.62  438.175  0.883741  1679 
 1047.28  439.664  0.88472  1680.69 
 1048.93  441.154  0.885699  1682.38 
 1050.58  442.646  0.886676  1684.08 
 1052.24  444.14  0.887652  1685.77 
 1053.89  445.636  0.888628  1687.46 
 1055.54  447.133  0.889602  1689.16 
 1057.2  448.631  0.890575  1690.85 
 1058.85  450.132  0.891547  1692.54 
 1060.5  451.634  0.892517  1694.24 
 1062.15  453.138  0.893487  1695.93 
 1063.81  454.643  0.894456  1697.62 
 1065.46  456.15  0.895424  1699.32 
 1067.11  457.659  0.896391  1701.01 
 1068.76  459.169  0.897356  1702.7 
 1070.41  460.681  0.898321  1704.4 
 1072.07  462.195  0.899284  1706.09 
 1073.72  463.71  0.900247  1707.78 
 1075.37  465.227  0.901208  1709.48 
 1077.02  466.745  0.902169  1711.17 
 1078.67  468.265  0.903128  1712.86 
 1080.32  469.787  0.904087  1714.56 
 1081.97  471.31  0.905044  1716.25 
 1083.62  472.836  0.906001  1717.94 
 1085.27  474.362  0.906956  1719.64 
 1086.92  475.89  0.907911  1721.33 
 1088.58  477.42  0.908864  1723.02 
 1090.23  478.952  0.909817  1724.72 
 1091.88  480.485  0.910768  1726.41 
 1093.53  482.02  0.911719  1728.1 
 1095.18  483.556  0.912668  1729.8 
 1096.83  485.094  0.913617  1731.49 
 1098.48  486.634  0.914564  1733.18 
 1100.12  488.175  0.915511  1734.88 
 1101.77  489.718  0.916457  1736.57 
 1103.42  491.262  0.917401  1738.26 
 1105.07  492.809  0.918345  1739.96 
 1106.72  494.356  0.919288  1741.65 
 1108.37  495.906  0.92023  1743.34 
 1110.02  497.456  0.92117  1745.04 
 1111.67  499.009  0.92211  1746.73 
 1113.32  500.563  0.923049  1748.42 
 1114.97  502.119  0.923987  1750.12 
 1116.62  503.676  0.924924  1751.81 
 1118.27  505.235  0.925861  1753.51 
 1119.91  506.795  0.926796  1755.2 
 1121.56  508.358  0.92773  1756.89 
 1123.21  509.921  0.928663  1758.59 
 1124.86  511.487  0.929596  1760.28 
 1126.51  513.053  0.930527  1761.97 
 1128.16  514.622  0.931458  1763.67 
 1129.81  516.192  0.932388  1765.36 
 1131.46  517.764  0.933317  1767.05 
 1133.1  519.337  0.934245  1768.75 
 1134.75  520.912  0.935172  1770.44 
 1136.4  522.488  0.936098  1772.13 
 1138.05  524.066  0.937023  1773.83 
 1139.7  525.646  0.937947  1775.52 
 1141.35  527.227  0.938871  1777.21 
 1142.99  528.809  0.939793  1778.91 
 1144.64  530.394  0.940715  1780.6 
 1146.29  531.98  0.941636  1782.29 
 1147.94  533.567  0.942556  1783.99 
 1149.59  535.156  0.943475  1785.68 
 1151.23  536.747  0.944393  1787.37 
 1152.88  538.339  0.94531  1789.07 
 1154.53  539.933  0.946227  1790.76 
 1156.18  541.528  0.947142  1792.45 
 1157.83  543.125  0.948057  1794.15 
 1159.48  544.723  0.948971  1795.84 
 1161.12  546.323  0.949884  1797.53 
 1162.77  547.925  0.950796  1799.23 
 1164.42  549.528  0.951707  1800.92 
 1166.07  551.132  0.952618  1802.61 
 1167.72  552.739  0.953527  1804.31 
 1169.36  554.346  0.954436  1806 
 1171.01  555.956  0.955344  1807.69 
 1172.66  557.567  0.956251  1809.39 
 1174.31  559.179  0.957158  1811.08 
 1175.96  560.793  0.958063  1812.77 
 1177.61  562.409  0.958968  1814.47 
 1179.25  564.026  0.959871  1816.16 
 1180.9  565.644  0.960774  1817.85 
 1182.55  567.265  0.961677  1819.55 
 1184.2  568.886  0.962578  1821.24 
 1185.85  570.51  0.963479  1822.93 
 1187.5  572.135  0.964378  1824.63 
 1189.14  573.761  0.965277  1826.32 
 1190.79  575.389  0.966175  1828.01 
 1192.44  577.018  0.967073  1829.71 
 1194.09  578.649  0.967969  1831.4 
 1195.74  580.282  0.968865  1833.09 
 1197.39  581.916  0.96976  1834.79 
